##TITLE=EP ATR
##DATA TYPE=INFRARED SPECTRUM
##XUNITS=1/CM
##YUNITS=%T
500.354774  	95.279181 
501.780287  	94.436398 
503.205799  	94.401364 
504.631311  	94.711279 
506.056823  	94.474141 
507.482335  	94.310142 
508.907847  	94.369123 
510.333360  	94.386725 
511.758872  	94.529773 
513.184384  	94.760954 
514.609896  	94.826015 
516.035408  	94.461422 
517.460920  	94.208658 
518.886433  	94.913862 
520.311945  	95.303278 
521.737457  	94.607120 
523.162969  	94.296727 
524.588481  	94.409399 
526.013994  	93.986194 
527.439506  	93.731192 
528.865018  	93.928222 
530.290530  	94.282396 
531.716042  	94.844677 
533.141554  	94.964342 
534.567067  	94.806601 
535.992579  	95.145383 
537.418091  	95.319168 
538.843603  	95.081352 
540.269115  	95.015799 
541.694627  	94.847447 
543.120140  	94.790016 
544.545652  	95.187520 
545.971164  	95.279567 
547.396676  	95.035869 
548.822188  	95.205462 
550.247701  	95.624093 
551.673213  	95.770928 
553.098725  	95.687587 
554.524237  	95.624670 
555.949749  	95.398174 
557.375261  	94.971392 
558.800774  	94.932277 
560.226286  	95.161143 
561.651798  	95.057427 
563.077310  	94.956127 
564.502822  	95.071561 
565.928335  	94.960647 
567.353847  	94.605967 
568.779359  	94.287037 
570.204871  	94.256635 
571.630383  	94.544752 
573.055895  	94.766019 
574.481408  	94.843179 
575.906920  	94.993563 
577.332432  	95.033850 
578.757944  	94.933248 
580.183456  	95.027962 
581.608968  	95.315424 
583.034481  	95.468207 
584.459993  	95.473887 
585.885505  	95.430313 
587.311017  	95.275864 
588.736529  	95.292699 
590.162042  	95.619921 
591.587554  	95.631692 
593.013066  	95.369507 
594.438578  	95.511176 
595.864090  	95.741585 
597.289602  	95.683885 
598.715115  	95.539736 
600.140627  	95.425123 
601.566139  	95.604896 
602.991651  	95.877691 
604.417163  	95.697595 
605.842675  	95.479567 
607.268188  	95.622144 
608.693700  	95.796877 
610.119212  	95.964268 
611.544724  	95.887019 
612.970236  	95.709197 
614.395749  	95.828240 
615.821261  	95.932388 
617.246773  	95.948574 
618.672285  	95.994243 
620.097797  	96.052081 
621.523309  	96.105146 
622.948822  	96.100740 
624.374334  	96.116038 
625.799846  	96.161416 
627.225358  	96.160635 
628.650870  	95.979474 
630.076383  	96.175913 
631.501895  	96.286396 
632.927407  	96.306046 
634.352919  	96.334412 
635.778431  	96.359386 
637.203943  	96.416273 
638.629456  	96.527010 
640.054968  	96.430947 
641.480480  	96.550607 
642.905992  	96.485179 
644.331504  	96.475128 
645.757016  	96.437399 
647.182529  	96.495907 
648.608041  	96.516844 
650.033553  	96.522252 
651.459065  	96.521435 
652.884577  	96.466789 
654.310090  	96.542704 
655.735602  	96.544638 
657.161114  	96.653818 
658.586626  	96.551480 
660.012138  	96.555493 
661.437650  	96.587636 
662.863163  	96.566309 
664.288675  	96.607511 
665.714187  	96.581240 
667.139699  	96.596654 
668.565211  	96.611280 
669.990723  	96.616808 
671.416236  	96.451736 
672.841748  	96.617224 
674.267260  	96.640450 
675.692772  	96.577749 
677.118284  	96.685378 
678.543797  	96.827650 
679.969309  	96.758760 
681.394821  	96.759734 
682.820333  	96.692247 
684.245845  	96.797334 
685.671357  	96.942674 
687.096870  	97.181927 
688.522382  	96.896516 
689.947894  	96.761129 
691.373406  	96.865693 
692.798918  	96.953224 
694.224430  	96.920495 
695.649943  	96.909421 
697.075455  	96.900243 
698.500967  	96.884601 
699.926479  	96.875404 
701.351991  	96.867484 
702.777504  	96.876067 
704.203016  	96.881970 
705.628528  	96.881616 
707.054040  	96.881380 
708.479552  	96.880303 
709.905064  	96.926175 
711.330577  	96.903267 
712.756089  	96.772175 
714.181601  	96.916731 
715.607113  	97.016510 
717.032625  	97.087440 
718.458138  	97.016396 
719.883650  	97.035970 
721.309162  	97.058539 
722.734674  	97.074617 
724.160186  	97.100455 
725.585698  	97.136926 
727.011211  	97.159207 
728.436723  	97.150408 
729.862235  	97.126722 
731.287747  	97.148518 
732.713259  	97.253212 
734.138771  	97.245021 
735.564284  	97.252168 
736.989796  	97.181147 
738.415308  	97.149458 
739.840820  	97.233361 
741.266332  	97.323685 
742.691845  	97.379450 
744.117357  	97.374197 
745.542869  	97.360967 
746.968381  	97.358967 
748.393893  	97.253022 
749.819405  	97.146894 
751.244918  	97.167726 
752.670430  	97.122841 
754.095942  	97.020914 
755.521454  	97.098804 
756.946966  	97.175184 
758.372478  	97.044310 
759.797991  	96.986747 
761.223503  	97.076992 
762.649015  	97.097306 
764.074527  	97.177148 
765.500039  	97.331446 
766.925552  	97.271959 
768.351064  	97.172371 
769.776576  	97.300105 
771.202088  	97.434956 
772.627600  	97.432446 
774.053112  	97.423676 
775.478625  	97.493916 
776.904137  	97.615463 
778.329649  	97.683747 
779.755161  	97.674712 
781.180673  	97.635483 
782.606186  	97.559018 
784.031698  	97.509888 
785.457210  	97.554393 
786.882722  	97.605230 
788.308234  	97.584036 
789.733746  	97.520579 
791.159259  	97.495997 
792.584771  	97.522491 
794.010283  	97.529496 
795.435795  	97.561376 
796.861307  	97.674134 
798.286819  	97.759296 
799.712332  	97.747679 
801.137844  	97.690777 
802.563356  	97.647221 
803.988868  	97.656702 
805.414380  	97.714548 
806.839893  	97.764376 
808.265405  	97.763910 
809.690917  	97.769846 
811.116429  	97.817863 
812.541941  	97.839388 
813.967453  	97.815282 
815.392966  	97.694903 
816.818478  	97.508464 
818.243990  	97.537973 
819.669502  	97.723034 
821.095014  	97.715851 
822.520526  	97.618833 
823.946039  	97.579986 
825.371551  	97.530741 
826.797063  	97.551047 
828.222575  	97.590521 
829.648087  	97.537040 
831.073600  	97.497476 
832.499112  	97.466874 
833.924624  	97.418383 
835.350136  	97.427415 
836.775648  	97.457242 
838.201160  	97.515027 
839.626673  	97.591995 
841.052185  	97.560432 
842.477697  	97.464731 
843.903209  	97.436082 
845.328721  	97.455494 
846.754234  	97.398155 
848.179746  	97.267927 
849.605258  	97.298622 
851.030770  	97.475746 
852.456282  	97.510703 
853.881794  	97.432034 
855.307307  	97.401714 
856.732819  	97.401368 
858.158331  	97.407736 
859.583843  	97.407216 
861.009355  	97.417358 
862.434867  	97.434572 
863.860380  	97.432615 
865.285892  	97.495519 
866.711404  	97.539948 
868.136916  	97.472226 
869.562428  	97.512134 
870.987941  	97.644542 
872.413453  	97.670713 
873.838965  	97.653358 
875.264477  	97.601460 
876.689989  	97.574857 
878.115501  	97.699681 
879.541014  	97.731415 
880.966526  	97.581362 
882.392038  	97.530275 
883.817550  	97.568837 
885.243062  	97.545342 
886.668574  	97.497905 
888.094087  	97.475021 
889.519599  	97.485339 
890.945111  	97.490584 
892.370623  	97.469475 
893.796135  	97.463926 
895.221648  	97.444982 
896.647160  	97.389687 
898.072672  	97.351517 
899.498184  	97.324424 
900.923696  	97.276894 
902.349208  	97.255564 
903.774721  	97.310024 
905.200233  	97.358504 
906.625745  	97.288787 
908.051257  	97.179014 
909.476769  	97.163104 
910.902281  	97.195791 
912.327794  	97.161880 
913.753306  	97.057955 
915.178818  	96.974536 
916.604330  	96.941965 
918.029842  	96.920351 
919.455355  	96.921034 
920.880867  	96.940196 
922.306379  	96.925243 
923.731891  	96.877476 
925.157403  	96.846189 
926.582915  	96.869023 
928.008428  	96.882203 
929.433940  	96.832980 
930.859452  	96.851633 
932.284964  	96.937857 
933.710476  	96.918629 
935.135989  	96.865625 
936.561501  	96.917056 
937.987013  	96.989643 
939.412525  	96.980221 
940.838037  	96.913786 
942.263549  	96.903301 
943.689062  	96.965637 
945.114574  	96.999227 
946.540086  	97.003575 
947.965598  	96.991583 
949.391110  	96.940715 
950.816622  	96.882853 
952.242135  	96.790948 
953.667647  	96.713516 
955.093159  	96.734120 
956.518671  	96.706068 
957.944183  	96.612855 
959.369696  	96.578466 
960.795208  	96.488137 
962.220720  	96.342904 
963.646232  	96.268949 
965.071744  	96.153273 
966.497256  	95.980887 
967.922769  	95.913400 
969.348281  	95.924631 
970.773793  	95.860804 
972.199305  	95.689585 
973.624817  	95.527738 
975.050329  	95.406127 
976.475842  	95.250685 
977.901354  	95.115397 
979.326866  	95.041221 
980.752378  	94.966204 
982.177890  	94.857237 
983.603403  	94.702867 
985.028915  	94.598077 
986.454427  	94.585530 
987.879939  	94.512771 
989.305451  	94.387293 
990.730963  	94.314864 
992.156476  	94.283110 
993.581988  	94.323956 
995.007500  	94.385364 
996.433012  	94.376350 
997.858524  	94.400054 
999.284037  	94.496177 
1000.709549  	94.569474 
1002.135061  	94.593219 
1003.560573  	94.597954 
1004.986085  	94.629314 
1006.411597  	94.676727 
1007.837110  	94.709475 
1009.262622  	94.748397 
1010.688134  	94.769654 
1012.113646  	94.779127 
1013.539158  	94.829572 
1014.964670  	94.891644 
1016.390183  	94.941088 
1017.815695  	94.964789 
1019.241207  	94.992646 
1020.666719  	95.121418 
1022.092231  	95.264445 
1023.517744  	95.320462 
1024.943256  	95.398714 
1026.368768  	95.515359 
1027.794280  	95.604489 
1029.219792  	95.690970 
1030.645304  	95.750119 
1032.070817  	95.785635 
1033.496329  	95.885482 
1034.921841  	96.018300 
1036.347353  	96.093930 
1037.772865  	96.149466 
1039.198377  	96.228814 
1040.623890  	96.255074 
1042.049402  	96.245006 
1043.474914  	96.337800 
1044.900426  	96.462568 
1046.325938  	96.491771 
1047.751451  	96.535279 
1049.176963  	96.659790 
1050.602475  	96.790313 
1052.027987  	96.913036 
1053.453499  	97.045826 
1054.879011  	97.184366 
1056.304524  	97.315367 
1057.730036  	97.426445 
1059.155548  	97.487875 
1060.581060  	97.495914 
1062.006572  	97.594462 
1063.432085  	97.785729 
1064.857597  	97.804808 
1066.283109  	97.726168 
1067.708621  	97.764417 
1069.134133  	97.689342 
1070.559645  	97.475169 
1071.985158  	97.397461 
1073.410670  	97.325232 
1074.836182  	97.167145 
1076.261694  	97.117069 
1077.687206  	97.114142 
1079.112718  	97.093868 
1080.538231  	97.195191 
1081.963743  	97.328972 
1083.389255  	97.357774 
1084.814767  	97.430429 
1086.240279  	97.579216 
1087.665792  	97.647497 
1089.091304  	97.681224 
1090.516816  	97.775629 
1091.942328  	97.890375 
1093.367840  	97.986301 
1094.793352  	98.010316 
1096.218865  	98.006803 
1097.644377  	98.072877 
1099.069889  	98.085213 
1100.495401  	98.011052 
1101.920913  	98.013126 
1103.346425  	98.044221 
1104.771938  	98.059405 
1106.197450  	98.112062 
1107.622962  	98.118351 
1109.048474  	98.106369 
1110.473986  	98.136813 
1111.899499  	98.147598 
1113.325011  	98.194853 
1114.750523  	98.238570 
1116.176035  	98.180963 
1117.601547  	98.166651 
1119.027059  	98.204596 
1120.452572  	98.190261 
1121.878084  	98.206950 
1123.303596  	98.233599 
1124.729108  	98.218851 
1126.154620  	98.255069 
1127.580132  	98.309909 
1129.005645  	98.300749 
1130.431157  	98.260630 
1131.856669  	98.235552 
1133.282181  	98.232349 
1134.707693  	98.216284 
1136.133206  	98.202204 
1137.558718  	98.197692 
1138.984230  	98.111742 
1140.409742  	97.983372 
1141.835254  	97.928256 
1143.260766  	97.906556 
1144.686279  	97.878168 
1146.111791  	97.856423 
1147.537303  	97.827829 
1148.962815  	97.797774 
1150.388327  	97.778205 
1151.813840  	97.789896 
1153.239352  	97.848858 
1154.664864  	97.922739 
1156.090376  	97.989268 
1157.515888  	98.070809 
1158.941400  	98.203054 
1160.366913  	98.366218 
1161.792425  	98.483466 
1163.217937  	98.554847 
1164.643449  	98.642086 
1166.068961  	98.751336 
1167.494473  	98.879906 
1168.919986  	98.993953 
1170.345498  	99.030989 
1171.771010  	99.045491 
1173.196522  	99.121169 
1174.622034  	99.234833 
1176.047547  	99.310160 
1177.473059  	99.300745 
1178.898571  	99.274853 
1180.324083  	99.301032 
1181.749595  	99.328051 
1183.175107  	99.354555 
1184.600620  	99.383140 
1186.026132  	99.344944 
1187.451644  	99.290375 
1188.877156  	99.285643 
1190.302668  	99.278567 
1191.728180  	99.256954 
1193.153693  	99.246444 
1194.579205  	99.233170 
1196.004717  	99.205180 
1197.430229  	99.166938 
1198.855741  	99.125064 
1200.281254  	99.091228 
1201.706766  	99.095003 
1203.132278  	99.111551 
1204.557790  	99.080113 
1205.983302  	99.043321 
1207.408814  	99.035147 
1208.834327  	99.034853 
1210.259839  	99.074309 
1211.685351  	99.085877 
1213.110863  	99.007561 
1214.536375  	98.977560 
1215.961888  	99.012616 
1217.387400  	98.998225 
1218.812912  	98.948956 
1220.238424  	98.904880 
1221.663936  	98.899205 
1223.089448  	98.915924 
1224.514961  	98.864578 
1225.940473  	98.800566 
1227.365985  	98.776024 
1228.791497  	98.722988 
1230.217009  	98.708942 
1231.642521  	98.753473 
1233.068034  	98.723357 
1234.493546  	98.662091 
1235.919058  	98.669986 
1237.344570  	98.694830 
1238.770082  	98.700546 
1240.195595  	98.694173 
1241.621107  	98.666879 
1243.046619  	98.637923 
1244.472131  	98.629125 
1245.897643  	98.639186 
1247.323155  	98.665277 
1248.748668  	98.688577 
1250.174180  	98.684779 
1251.599692  	98.690155 
1253.025204  	98.740703 
1254.450716  	98.773295 
1255.876228  	98.770677 
1257.301741  	98.798322 
1258.727253  	98.818232 
1260.152765  	98.800092 
1261.578277  	98.805406 
1263.003789  	98.817221 
1264.429302  	98.827422 
1265.854814  	98.857643 
1267.280326  	98.865865 
1268.705838  	98.869034 
1270.131350  	98.886570 
1271.556862  	98.887156 
1272.982375  	98.914219 
1274.407887  	98.960551 
1275.833399  	98.961699 
1277.258911  	98.960885 
1278.684423  	98.971717 
1280.109935  	98.963344 
1281.535448  	98.976850 
1282.960960  	98.997010 
1284.386472  	98.978235 
1285.811984  	98.949926 
1287.237496  	98.929000 
1288.663009  	98.922580 
1290.088521  	98.931217 
1291.514033  	98.919198 
1292.939545  	98.901201 
1294.365057  	98.898632 
1295.790569  	98.889403 
1297.216082  	98.893722 
1298.641594  	98.908168 
1300.067106  	98.895327 
1301.492618  	98.892356 
1302.918130  	98.893642 
1304.343643  	98.882907 
1305.769155  	98.878943 
1307.194667  	98.873900 
1308.620179  	98.869018 
1310.045691  	98.863337 
1311.471203  	98.856220 
1312.896716  	98.849360 
1314.322228  	98.842225 
1315.747740  	98.834840 
1317.173252  	98.829143 
1318.598764  	98.823590 
1320.024276  	98.817331 
1321.449789  	98.811188 
1322.875301  	98.806245 
1324.300813  	98.800957 
1325.726325  	98.769015 
1327.151837  	98.793038 
1328.577350  	98.789247 
1330.002862  	98.787294 
1331.428374  	98.786044 
1332.853886  	98.785717 
1334.279398  	98.782841 
1335.704910  	98.781125 
1337.130423  	98.779621 
1338.555935  	98.779019 
1339.981447  	98.779609 
1341.406959  	98.778974 
1342.832471  	98.775498 
1344.257983  	98.773054 
1345.683496  	98.765833 
1347.109008  	98.773132 
1348.534520  	98.773134 
1349.960032  	98.774295 
1351.385544  	98.777873 
1352.811057  	98.770500 
1354.236569  	98.773330 
1355.662081  	98.772312 
1357.087593  	98.773216 
1358.513105  	98.773865 
1359.938617  	98.777314 
1361.364130  	98.781514 
1362.789642  	98.785382 
1364.215154  	98.789903 
1365.640666  	98.782745 
1367.066178  	98.807176 
1368.491691  	98.816308 
1369.917203  	98.823579 
1371.342715  	98.831258 
1372.768227  	98.840743 
1374.193739  	98.850818 
1375.619251  	98.862676 
1377.044764  	98.876072 
1378.470276  	98.889400 
1379.895788  	98.903195 
1381.321300  	98.916730 
1382.746812  	98.930008 
1384.172324  	98.935002 
1385.597837  	98.951693 
1387.023349  	98.962992 
1388.448861  	98.971906 
1389.874373  	98.979477 
1391.299885  	98.986409 
1392.725398  	98.991965 
1394.150910  	98.997162 
1395.576422  	99.003508 
1397.001934  	99.008576 
1398.427446  	99.012569 
1399.852958  	99.016144 
1401.278471  	99.019409 
1402.703983  	99.021423 
1404.129495  	99.023179 
1405.555007  	99.025120 
1406.980519  	99.028194 
1408.406031  	99.021092 
1409.831544  	99.032564 
1411.257056  	99.033707 
1412.682568  	99.034310 
1414.108080  	99.032733 
1415.533592  	99.031663 
1416.959105  	99.033071 
1418.384617  	99.035727 
1419.810129  	99.037185 
1421.235641  	99.038885 
1422.661153  	99.040246 
1424.086665  	99.042227 
1425.512178  	99.043681 
1426.937690  	99.008780 
1428.363202  	99.049466 
1429.788714  	99.050907 
1431.214226  	99.052167 
1432.639739  	99.054633 
1434.065251  	99.058198 
1435.490763  	99.065322 
1436.916275  	99.076116 
1438.341787  	99.087730 
1439.767299  	99.098418 
1441.192812  	99.104781 
1442.618324  	99.108583 
1444.043836  	99.082673 
1445.469348  	99.131632 
1446.894860  	99.139161 
1448.320372  	99.145927 
1449.745885  	99.153835 
1451.171397  	99.161843 
1452.596909  	99.171216 
1454.022421  	99.181352 
1455.447933  	99.190197 
1456.873446  	99.200039 
1458.298958  	99.210735 
1459.724470  	99.218935 
1461.149982  	99.225493 
1462.575494  	99.236597 
1464.001006  	99.251376 
1465.426519  	99.267396 
1466.852031  	99.281782 
1468.277543  	99.290016 
1469.703055  	99.295501 
1471.128567  	99.307113 
1472.554079  	99.321241 
1473.979592  	99.334951 
1475.405104  	99.348263 
1476.830616  	99.360586 
1478.256128  	99.372590 
1479.681640  	99.383762 
1481.107153  	99.396518 
1482.532665  	99.406504 
1483.958177  	99.434313 
1485.383689  	99.423242 
1486.809201  	99.427670 
1488.234713  	99.429577 
1489.660226  	99.431936 
1491.085738  	99.437047 
1492.511250  	99.444725 
1493.936762  	99.452142 
1495.362274  	99.451954 
1496.787786  	99.450955 
1498.213299  	99.451874 
1499.638811  	99.451329 
1501.064323  	99.447367 
1502.489835  	99.451561 
1503.915347  	99.445016 
1505.340860  	99.443474 
1506.766372  	99.442761 
1508.191884  	99.445356 
1509.617396  	99.445368 
1511.042908  	99.439050 
1512.468420  	99.433788 
1513.893933  	99.432286 
1515.319445  	99.432390 
1516.744957  	99.429222 
1518.170469  	99.424613 
1519.595981  	99.427223 
1521.021494  	99.429367 
1522.447006  	99.425484 
1523.872518  	99.421890 
1525.298030  	99.422595 
1526.723542  	99.424539 
1528.149054  	99.423433 
1529.574567  	99.420763 
1531.000079  	99.423217 
1532.425591  	99.414119 
1533.851103  	99.409792 
1535.276615  	99.410464 
1536.702127  	99.411842 
1538.127640  	99.410661 
1539.553152  	99.407065 
1540.978664  	99.405268 
1542.404176  	99.404697 
1543.829688  	99.401526 
1545.255201  	99.400299 
1546.680713  	99.407770 
1548.106225  	99.408661 
1549.531737  	99.408226 
1550.957249  	99.405975 
1552.382761  	99.404690 
1553.808274  	99.403807 
1555.233786  	99.401937 
1556.659298  	99.401070 
1558.084810  	99.403512 
1559.510322  	99.406921 
1560.935834  	99.408231 
1562.361347  	99.409761 
1563.786859  	99.410333 
1565.212371  	99.406702 
1566.637883  	99.404278 
1568.063395  	99.405600 
1569.488908  	99.402353 
1570.914420  	99.391110 
1572.339932  	99.431141 
1573.765444  	99.381389 
1575.190956  	99.377274 
1576.616468  	99.374127 
1578.041981  	99.374244 
1579.467493  	99.388623 
1580.893005  	99.374735 
1582.318517  	99.371449 
1583.744029  	99.306780 
1585.169542  	99.359888 
1586.595054  	99.348367 
1588.020566  	99.351140 
1589.446078  	99.349367 
1590.871590  	99.389043 
1592.297102  	99.341956 
1593.722615  	99.336025 
1595.148127  	99.333844 
1596.573639  	99.333976 
1597.999151  	99.355902 
1599.424663  	99.328581 
1600.850175  	99.322842 
1602.275688  	99.317507 
1603.701200  	99.312243 
1605.126712  	99.281927 
1606.552224  	99.305820 
1607.977736  	99.304482 
1609.403249  	99.302351 
1610.828761  	99.297514 
1612.254273  	99.257649 
1613.679785  	99.273065 
1615.105297  	99.279324 
1616.530809  	99.275924 
1617.956322  	99.272353 
1619.381834  	99.299795 
1620.807346  	99.294472 
1622.232858  	99.252900 
1623.658370  	99.250637 
1625.083882  	99.248905 
1626.509395  	99.226405 
1627.934907  	99.242521 
1629.360419  	99.236755 
1630.785931  	99.198060 
1632.211443  	99.220452 
1633.636956  	99.218532 
1635.062468  	99.219723 
1636.487980  	99.221250 
1637.913492  	99.223188 
1639.339004  	99.225088 
1640.764516  	99.225102 
1642.190029  	99.219880 
1643.615541  	99.220801 
1645.041053  	99.224905 
1646.466565  	99.226820 
1647.892077  	99.224869 
1649.317590  	99.223793 
1650.743102  	99.223892 
1652.168614  	99.223415 
1653.594126  	99.225582 
1655.019638  	99.232593 
