##TITLE=EP ATR
##DATA TYPE=INFRARED SPECTRUM
##XUNITS=1/CM
##YUNITS=%T
500.354774  	97.791742 
501.780287  	98.138290 
503.205799  	98.050648 
504.631311  	97.545298 
506.056823  	97.105160 
507.482335  	97.395086 
508.907847  	97.481107 
510.333360  	97.364108 
511.758872  	97.778360 
513.184384  	97.927058 
514.609896  	97.675408 
516.035408  	97.450109 
517.460920  	97.139509 
518.886433  	97.086889 
520.311945  	97.286114 
521.737457  	97.581137 
523.162969  	97.945325 
524.588481  	97.615044 
526.013994  	96.853094 
527.439506  	97.010118 
528.865018  	97.497052 
530.290530  	97.536963 
531.716042  	97.533433 
533.141554  	97.678032 
534.567067  	97.755056 
535.992579  	97.598039 
537.418091  	97.367089 
538.843603  	97.459266 
540.269115  	97.765180 
541.694627  	97.920588 
543.120140  	97.840755 
544.545652  	97.549182 
545.971164  	97.400053 
547.396676  	97.547752 
548.822188  	97.477894 
550.247701  	97.253459 
551.673213  	97.436088 
553.098725  	97.758764 
554.524237  	97.862487 
555.949749  	97.834547 
557.375261  	97.566961 
558.800774  	97.275691 
560.226286  	97.362934 
561.651798  	97.542410 
563.077310  	97.641298 
564.502822  	97.746079 
565.928335  	97.640854 
567.353847  	97.593036 
568.779359  	97.805071 
570.204871  	97.738485 
571.630383  	97.576187 
573.055895  	97.679947 
574.481408  	97.551513 
575.906920  	97.254686 
577.332432  	97.277515 
578.757944  	97.388203 
580.183456  	97.477825 
581.608968  	97.606743 
583.034481  	97.645282 
584.459993  	97.741058 
585.885505  	97.950824 
587.311017  	98.030745 
588.736529  	97.980844 
590.162042  	97.941611 
591.587554  	97.881168 
593.013066  	97.789229 
594.438578  	97.855785 
595.864090  	98.072839 
597.289602  	98.131657 
598.715115  	98.058911 
600.140627  	98.096825 
601.566139  	98.140058 
602.991651  	98.166980 
604.417163  	98.046889 
605.842675  	98.022110 
607.268188  	97.890709 
608.693700  	98.029960 
610.119212  	97.951458 
611.544724  	98.050027 
612.970236  	98.069776 
614.395749  	98.059542 
615.821261  	98.151630 
617.246773  	98.175875 
618.672285  	98.203356 
620.097797  	98.236658 
621.523309  	98.381397 
622.948822  	98.447668 
624.374334  	98.316203 
625.799846  	98.319929 
627.225358  	98.327223 
628.650870  	98.449715 
630.076383  	98.561782 
631.501895  	98.404775 
632.927407  	98.363612 
634.352919  	98.371348 
635.778431  	98.351854 
637.203943  	98.291431 
638.629456  	98.299786 
640.054968  	98.346638 
641.480480  	98.448138 
642.905992  	98.359966 
644.331504  	98.315835 
645.757016  	98.162584 
647.182529  	98.312536 
648.608041  	98.320496 
650.033553  	98.334264 
651.459065  	98.346561 
652.884577  	98.352435 
654.310090  	98.355160 
655.735602  	98.363104 
657.161114  	98.369540 
658.586626  	98.380953 
660.012138  	98.392733 
661.437650  	98.400767 
662.863163  	98.400559 
664.288675  	98.471864 
665.714187  	98.392401 
667.139699  	98.395716 
668.565211  	98.404612 
669.990723  	98.411555 
671.416236  	98.406992 
672.841748  	98.411957 
674.267260  	98.301169 
675.692772  	98.394897 
677.118284  	98.404460 
678.543797  	98.404599 
679.969309  	98.400469 
681.394821  	98.395009 
682.820333  	98.388502 
684.245845  	98.379001 
685.671357  	98.379297 
687.096870  	98.389984 
688.522382  	98.386172 
689.947894  	98.422078 
691.373406  	98.473137 
692.798918  	98.303408 
694.224430  	98.163808 
695.649943  	98.359182 
697.075455  	98.362973 
698.500967  	98.366265 
699.926479  	98.372463 
701.351991  	98.374760 
702.777504  	98.374298 
704.203016  	98.387242 
705.628528  	98.423012 
707.054040  	98.440314 
708.479552  	98.324668 
709.905064  	98.386739 
711.330577  	98.466583 
712.756089  	98.470914 
714.181601  	98.506409 
715.607113  	98.652459 
717.032625  	98.812701 
718.458138  	98.603069 
719.883650  	98.609524 
721.309162  	98.635193 
722.734674  	98.659050 
724.160186  	98.676394 
725.585698  	98.647732 
727.011211  	98.632130 
728.436723  	98.801196 
729.862235  	98.809822 
731.287747  	98.853759 
732.713259  	98.877402 
734.138771  	98.776694 
735.564284  	98.705089 
736.989796  	98.654975 
738.415308  	98.797609 
739.840820  	98.958238 
741.266332  	98.888740 
742.691845  	98.755205 
744.117357  	98.823132 
745.542869  	98.845138 
746.968381  	98.726191 
748.393893  	98.712990 
749.819405  	98.680303 
751.244918  	98.498523 
752.670430  	98.458630 
754.095942  	98.615496 
755.521454  	98.621017 
756.946966  	98.407554 
758.372478  	98.342263 
759.797991  	98.606502 
761.223503  	98.857967 
762.649015  	98.780206 
764.074527  	98.586279 
765.500039  	98.504459 
766.925552  	98.408477 
768.351064  	98.341260 
769.776576  	98.487147 
771.202088  	98.665346 
772.627600  	98.702090 
774.053112  	98.735130 
775.478625  	98.824009 
776.904137  	98.914395 
778.329649  	98.953129 
779.755161  	98.870390 
781.180673  	98.772841 
782.606186  	98.813164 
784.031698  	98.913847 
785.457210  	98.984793 
786.882722  	99.025293 
788.308234  	99.000642 
789.733746  	98.941982 
791.159259  	98.950439 
792.584771  	98.999397 
794.010283  	98.956402 
795.435795  	98.822650 
796.861307  	98.742904 
798.286819  	98.778699 
799.712332  	98.875790 
801.137844  	98.953146 
802.563356  	98.983629 
803.988868  	99.024583 
805.414380  	99.003860 
806.839893  	98.837866 
808.265405  	98.794217 
809.690917  	99.010989 
811.116429  	99.133157 
812.541941  	98.956552 
813.967453  	98.717593 
815.392966  	98.678037 
816.818478  	98.821888 
818.243990  	98.909766 
819.669502  	98.866735 
821.095014  	98.846952 
822.520526  	98.884572 
823.946039  	98.938628 
825.371551  	98.982791 
826.797063  	98.936443 
828.222575  	98.865817 
829.648087  	98.892018 
831.073600  	98.908602 
832.499112  	98.823125 
833.924624  	98.732230 
835.350136  	98.727471 
836.775648  	98.809225 
838.201160  	98.855171 
839.626673  	98.767140 
841.052185  	98.706941 
842.477697  	98.815563 
843.903209  	98.944490 
845.328721  	98.973485 
846.754234  	98.931765 
848.179746  	98.837251 
849.605258  	98.788961 
851.030770  	98.842988 
852.456282  	98.837913 
853.881794  	98.751461 
855.307307  	98.745903 
856.732819  	98.799198 
858.158331  	98.826444 
859.583843  	98.803808 
861.009355  	98.706083 
862.434867  	98.683295 
863.860380  	98.826935 
865.285892  	98.908605 
866.711404  	98.872976 
868.136916  	98.886254 
869.562428  	98.910150 
870.987941  	98.913237 
872.413453  	98.920760 
873.838965  	98.847842 
875.264477  	98.811310 
876.689989  	98.919465 
878.115501  	98.935109 
879.541014  	98.858753 
880.966526  	98.943111 
882.392038  	99.044175 
883.817550  	98.960156 
885.243062  	98.852837 
886.668574  	98.847520 
888.094087  	98.861508 
889.519599  	98.832629 
890.945111  	98.789734 
892.370623  	98.764805 
893.796135  	98.756692 
895.221648  	98.788264 
896.647160  	98.813790 
898.072672  	98.726355 
899.498184  	98.620673 
900.923696  	98.623404 
902.349208  	98.652890 
903.774721  	98.670623 
905.200233  	98.682662 
906.625745  	98.651064 
908.051257  	98.655037 
909.476769  	98.701598 
910.902281  	98.683155 
912.327794  	98.648026 
913.753306  	98.618631 
915.178818  	98.530843 
916.604330  	98.472664 
918.029842  	98.486187 
919.455355  	98.480260 
920.880867  	98.475066 
922.306379  	98.510313 
923.731891  	98.511511 
925.157403  	98.489998 
926.582915  	98.554111 
928.008428  	98.634340 
929.433940  	98.583961 
930.859452  	98.514927 
932.284964  	98.566976 
933.710476  	98.614950 
935.135989  	98.568890 
936.561501  	98.529006 
937.987013  	98.555717 
939.412525  	98.602055 
940.838037  	98.600406 
942.263549  	98.576485 
943.689062  	98.605729 
945.114574  	98.640053 
946.540086  	98.629831 
947.965598  	98.631733 
949.391110  	98.635526 
950.816622  	98.595102 
952.242135  	98.537828 
953.667647  	98.471772 
955.093159  	98.393374 
956.518671  	98.347817 
957.944183  	98.356462 
959.369696  	98.365865 
960.795208  	98.331719 
962.220720  	98.286925 
963.646232  	98.248446 
965.071744  	98.199633 
966.497256  	98.160445 
967.922769  	98.107208 
969.348281  	98.020165 
970.773793  	97.972279 
972.199305  	97.944460 
973.624817  	97.875482 
975.050329  	97.841394 
976.475842  	97.833830 
977.901354  	97.737534 
979.326866  	97.617056 
980.752378  	97.586063 
982.177890  	97.578310 
983.603403  	97.523023 
985.028915  	97.476713 
986.454427  	97.463259 
987.879939  	97.440683 
989.305451  	97.444669 
990.730963  	97.511723 
992.156476  	97.543042 
993.581988  	97.486972 
995.007500  	97.448835 
996.433012  	97.460041 
997.858524  	97.459225 
999.284037  	97.466303 
1000.709549  	97.481536 
1002.135061  	97.470818 
1003.560573  	97.504306 
1004.986085  	97.586314 
1006.411597  	97.604301 
1007.837110  	97.549755 
1009.262622  	97.478648 
1010.688134  	97.443096 
1012.113646  	97.495094 
1013.539158  	97.575686 
1014.964670  	97.618428 
1016.390183  	97.635173 
1017.815695  	97.595153 
1019.241207  	97.542601 
1020.666719  	97.609925 
1022.092231  	97.741746 
1023.517744  	97.783749 
1024.943256  	97.766392 
1026.368768  	97.797184 
1027.794280  	97.834304 
1029.219792  	97.853127 
1030.645304  	97.941423 
1032.070817  	98.026813 
1033.496329  	98.004223 
1034.921841  	97.985609 
1036.347353  	98.018458 
1037.772865  	98.055947 
1039.198377  	98.124245 
1040.623890  	98.191321 
1042.049402  	98.236793 
1043.474914  	98.271203 
1044.900426  	98.271877 
1046.325938  	98.321523 
1047.751451  	98.403495 
1049.176963  	98.380402 
1050.602475  	98.344323 
1052.027987  	98.403805 
1053.453499  	98.522964 
1054.879011  	98.645826 
1056.304524  	98.655109 
1057.730036  	98.626342 
1059.155548  	98.714863 
1060.581060  	98.784791 
1062.006572  	98.800199 
1063.432085  	98.874349 
1064.857597  	98.926966 
1066.283109  	98.879435 
1067.708621  	98.748484 
1069.134133  	98.686390 
1070.559645  	98.808020 
1071.985158  	98.798464 
1073.410670  	98.577374 
1074.836182  	98.543910 
1076.261694  	98.630657 
1077.687206  	98.599901 
1079.112718  	98.584364 
1080.538231  	98.590522 
1081.963743  	98.607976 
1083.389255  	98.714610 
1084.814767  	98.794313 
1086.240279  	98.852315 
1087.665792  	98.954113 
1089.091304  	98.968517 
1090.516816  	98.939150 
1091.942328  	98.978040 
1093.367840  	98.994781 
1094.793352  	98.992982 
1096.218865  	99.018378 
1097.644377  	98.996170 
1099.069889  	98.971058 
1100.495401  	99.027317 
1101.920913  	99.076051 
1103.346425  	99.041858 
1104.771938  	98.989322 
1106.197450  	98.994867 
1107.622962  	99.060359 
1109.048474  	99.121118 
1110.473986  	99.138626 
1111.899499  	99.150767 
1113.325011  	99.141111 
1114.750523  	99.082076 
1116.176035  	99.079262 
1117.601547  	99.159392 
1119.027059  	99.168985 
1120.452572  	99.109984 
1121.878084  	99.143896 
1123.303596  	99.230886 
1124.729108  	99.214810 
1126.154620  	99.150481 
1127.580132  	99.158776 
1129.005645  	99.188714 
1130.431157  	99.183676 
1131.856669  	99.172983 
1133.282181  	99.159185 
1134.707693  	99.151640 
1136.133206  	99.149124 
1137.558718  	99.125041 
1138.984230  	99.114851 
1140.409742  	99.110029 
1141.835254  	99.074915 
1143.260766  	99.050936 
1144.686279  	99.009391 
1146.111791  	98.950106 
1147.537303  	98.958651 
1148.962815  	98.953243 
1150.388327  	98.905049 
1151.813840  	98.925745 
1153.239352  	98.943620 
1154.664864  	98.953952 
1156.090376  	99.080467 
1157.515888  	99.186677 
1158.941400  	99.153840 
1160.366913  	99.142709 
1161.792425  	99.244453 
1163.217937  	99.365573 
1164.643449  	99.415291 
1166.068961  	99.406448 
1167.494473  	99.405655 
1168.919986  	99.437484 
1170.345498  	99.495611 
1171.771010  	99.566798 
1173.196522  	99.614408 
1174.622034  	99.604218 
1176.047547  	99.565585 
1177.473059  	99.575141 
1178.898571  	99.611559 
1180.324083  	99.614859 
1181.749595  	99.637936 
1183.175107  	99.656888 
1184.600620  	99.611815 
1186.026132  	99.600582 
1187.451644  	99.611779 
1188.877156  	99.568923 
1190.302668  	99.571088 
1191.728180  	99.605248 
1193.153693  	99.589041 
1194.579205  	99.584264 
1196.004717  	99.571957 
1197.430229  	99.534143 
1198.855741  	99.541364 
1200.281254  	99.549414 
1201.706766  	99.537347 
1203.132278  	99.529321 
1204.557790  	99.485387 
1205.983302  	99.453157 
1207.408814  	99.469985 
1208.834327  	99.489931 
1210.259839  	99.514711 
1211.685351  	99.510049 
1213.110863  	99.472548 
1214.536375  	99.479768 
1215.961888  	99.499256 
1217.387400  	99.493444 
1218.812912  	99.485259 
1220.238424  	99.453491 
1221.663936  	99.427374 
1223.089448  	99.420539 
1224.514961  	99.379170 
1225.940473  	99.340714 
1227.365985  	99.340422 
1228.791497  	99.349600 
1230.217009  	99.365270 
1231.642521  	99.360297 
1233.068034  	99.339242 
1234.493546  	99.351566 
1235.919058  	99.356941 
1237.344570  	99.324373 
1238.770082  	99.297741 
1240.195595  	99.279309 
1241.621107  	99.265379 
1243.046619  	99.272853 
1244.472131  	99.281228 
1245.897643  	99.275761 
1247.323155  	99.273227 
1248.748668  	99.283357 
1250.174180  	99.303177 
1251.599692  	99.317557 
1253.025204  	99.320445 
1254.450716  	99.327482 
1255.876228  	99.337813 
1257.301741  	99.347471 
1258.727253  	99.365123 
1260.152765  	99.366611 
1261.578277  	99.347127 
1263.003789  	99.360019 
1264.429302  	99.399651 
1265.854814  	99.411289 
1267.280326  	99.402479 
1268.705838  	99.403636 
1270.131350  	99.405780 
1271.556862  	99.402838 
1272.982375  	99.421021 
1274.407887  	99.454187 
1275.833399  	99.443862 
1277.258911  	99.402094 
1278.684423  	99.405001 
1280.109935  	99.440846 
1281.535448  	99.458629 
1282.960960  	99.457928 
1284.386472  	99.447966 
1285.811984  	99.441982 
1287.237496  	99.426422 
1288.663009  	99.393334 
1290.088521  	99.409680 
1291.514033  	99.460124 
1292.939545  	99.457132 
1294.365057  	99.431775 
1295.790569  	99.417677 
1297.216082  	99.390424 
1298.641594  	99.388581 
1300.067106  	99.419315 
1301.492618  	99.424451 
1302.918130  	99.432002 
1304.343643  	99.421615 
1305.769155  	99.417892 
1307.194667  	99.414035 
1308.620179  	99.410513 
1310.045691  	99.409299 
1311.471203  	99.409401 
1312.896716  	99.408462 
1314.322228  	99.406000 
1315.747740  	99.401865 
1317.173252  	99.396995 
1318.598764  	99.392751 
1320.024276  	99.388441 
1321.449789  	99.383723 
1322.875301  	99.378417 
1324.300813  	99.372553 
1325.726325  	99.392659 
1327.151837  	99.360268 
1328.577350  	99.352876 
1330.002862  	99.349796 
1331.428374  	99.351291 
1332.853886  	99.348247 
1334.279398  	99.356683 
1335.704910  	99.356145 
1337.130423  	99.351278 
1338.555935  	99.347020 
1339.981447  	99.345517 
1341.406959  	99.344224 
1342.832471  	99.343070 
1344.257983  	99.344189 
1345.683496  	99.416055 
1347.109008  	99.338092 
1348.534520  	99.332461 
1349.960032  	99.332952 
1351.385544  	99.336106 
1352.811057  	99.323758 
1354.236569  	99.339377 
1355.662081  	99.337087 
1357.087593  	99.288197 
1358.513105  	99.325454 
1359.938617  	99.322676 
1361.364130  	99.322753 
1362.789642  	99.322728 
1364.215154  	99.324797 
1365.640666  	99.372151 
1367.066178  	99.333957 
1368.491691  	99.337516 
1369.917203  	99.342513 
1371.342715  	99.347831 
1372.768227  	99.354244 
1374.193739  	99.361170 
1375.619251  	99.366590 
1377.044764  	99.370694 
1378.470276  	99.374194 
1379.895788  	99.379920 
1381.321300  	99.373983 
1382.746812  	99.397321 
1384.172324  	99.430322 
1385.597837  	99.404671 
1387.023349  	99.410074 
1388.448861  	99.412698 
1389.874373  	99.413234 
1391.299885  	99.417305 
1392.725398  	99.422392 
1394.150910  	99.425543 
1395.576422  	99.426481 
1397.001934  	99.425371 
1398.427446  	99.423820 
1399.852958  	99.423456 
1401.278471  	99.424397 
1402.703983  	99.425143 
1404.129495  	99.424057 
1405.555007  	99.421492 
1406.980519  	99.421527 
1408.406031  	99.411499 
1409.831544  	99.426124 
1411.257056  	99.427686 
1412.682568  	99.430524 
1414.108080  	99.432792 
1415.533592  	99.433928 
1416.959105  	99.435392 
1418.384617  	99.436762 
1419.810129  	99.437142 
1421.235641  	99.436410 
1422.661153  	99.439607 
1424.086665  	99.449989 
1425.512178  	99.455508 
1426.937690  	99.459046 
1428.363202  	99.455972 
1429.788714  	99.459539 
1431.214226  	99.463692 
1432.639739  	99.468618 
1434.065251  	99.476255 
1435.490763  	99.482638 
1436.916275  	99.483329 
1438.341787  	99.483456 
1439.767299  	99.483757 
1441.192812  	99.486319 
1442.618324  	99.488915 
1444.043836  	99.520688 
1445.469348  	99.501204 
1446.894860  	99.500913 
1448.320372  	99.495307 
1449.745885  	99.497386 
1451.171397  	99.508976 
1452.596909  	99.518992 
1454.022421  	99.522057 
1455.447933  	99.524506 
1456.873446  	99.526918 
1458.298958  	99.528747 
1459.724470  	99.533450 
1461.149982  	99.541341 
1462.575494  	99.549331 
1464.001006  	99.555546 
1465.426519  	99.563600 
1466.852031  	99.572583 
1468.277543  	99.578529 
1469.703055  	99.586990 
1471.128567  	99.596172 
1472.554079  	99.604711 
1473.979592  	99.609444 
1475.405104  	99.609640 
1476.830616  	99.610397 
1478.256128  	99.609992 
1479.681640  	99.608206 
1481.107153  	99.604799 
1482.532665  	99.609622 
1483.958177  	99.639114 
1485.383689  	99.623782 
1486.809201  	99.625629 
1488.234713  	99.623673 
1489.660226  	99.617852 
1491.085738  	99.611891 
1492.511250  	99.611293 
1493.936762  	99.618786 
1495.362274  	99.608198 
1496.787786  	99.594729 
1498.213299  	99.587359 
1499.638811  	99.583904 
1501.064323  	99.580053 
1502.489835  	99.534580 
1503.915347  	99.591880 
1505.340860  	99.591541 
1506.766372  	99.581877 
1508.191884  	99.573125 
1509.617396  	99.567693 
1511.042908  	99.560330 
1512.468420  	99.557164 
1513.893933  	99.560376 
1515.319445  	99.561539 
1516.744957  	99.554856 
1518.170469  	99.543570 
1519.595981  	99.550829 
1521.021494  	99.561062 
1522.447006  	99.556686 
1523.872518  	99.546949 
1525.298030  	99.544309 
1526.723542  	99.548871 
1528.149054  	99.546333 
1529.574567  	99.545786 
1531.000079  	99.568644 
1532.425591  	99.548780 
1533.851103  	99.545170 
1535.276615  	99.551702 
1536.702127  	99.559819 
1538.127640  	99.560069 
1539.553152  	99.556557 
1540.978664  	99.556286 
1542.404176  	99.556557 
1543.829688  	99.554665 
1545.255201  	99.557858 
1546.680713  	99.574714 
1548.106225  	99.647284 
1549.531737  	99.571369 
1550.957249  	99.565152 
1552.382761  	99.569382 
1553.808274  	99.573570 
1555.233786  	99.573963 
1556.659298  	99.578713 
1558.084810  	99.580400 
1559.510322  	99.573633 
1560.935834  	99.565259 
1562.361347  	99.565870 
1563.786859  	99.575570 
1565.212371  	99.578297 
1566.637883  	99.579753 
1568.063395  	99.586044 
1569.488908  	99.587933 
1570.914420  	99.584491 
1572.339932  	99.505493 
1573.765444  	99.609416 
1575.190956  	99.612768 
1576.616468  	99.612233 
1578.041981  	99.614459 
1579.467493  	99.642567 
1580.893005  	99.616470 
1582.318517  	99.619004 
1583.744029  	99.675628 
1585.169542  	99.631352 
1586.595054  	99.619833 
1588.020566  	99.626477 
1589.446078  	99.624257 
1590.871590  	99.627603 
1592.297102  	99.622188 
1593.722615  	99.616673 
1595.148127  	99.613150 
1596.573639  	99.607672 
1597.999151  	99.593864 
1599.424663  	99.599871 
1600.850175  	99.600753 
1602.275688  	99.601045 
1603.701200  	99.604110 
1605.126712  	99.584460 
1606.552224  	99.601088 
1607.977736  	99.596940 
1609.403249  	99.597409 
1610.828761  	99.597981 
1612.254273  	99.632529 
1613.679785  	99.640211 
1615.105297  	99.593762 
1616.530809  	99.589854 
1617.956322  	99.586259 
1619.381834  	99.558911 
1620.807346  	99.614582 
1622.232858  	99.583545 
1623.658370  	99.586323 
1625.083882  	99.575919 
1626.509395  	99.530916 
1627.934907  	99.560501 
1629.360419  	99.557395 
1630.785931  	99.523915 
1632.211443  	99.560415 
1633.636956  	99.560325 
1635.062468  	99.554558 
1636.487980  	99.544377 
1637.913492  	99.539749 
1639.339004  	99.549204 
1640.764516  	99.571367 
1642.190029  	99.575583 
1643.615541  	99.576166 
1645.041053  	99.579299 
1646.466565  	99.578059 
1647.892077  	99.575059 
1649.317590  	99.586292 
1650.743102  	99.599245 
1652.168614  	99.596756 
1653.594126  	99.589729 
1655.019638  	99.588322 
